* Xenon line list.
* Current version August 1992
* ref Wavelengths Standards in the Infrared K. N. Rao et al 1966
* 2nd Numbers are relative strength
*  UNITS  = MICRONS
*  MEDIUM = VACUUM

 1.05308
 1.07096
 1.08413
 1.08983
 1.10883
 1.11302
 1.11442
 1.16173
 1.17455
 1.17968
 1.18605
 1.196564
 1.20881
 1.22386
 1.22611
 1.25937
 1.26268
 1.35478
 1.36608
 1.41462
 1.42448
 1.43688
 1.46648
 1.47368
 1.51039
 1.54226
 1.55614
 1.59389
 1.60442
 1.60577
 1.65590
 1.67326
 1.73305
 1.87932
 2.01926
 2.02678
 2.13789
 2.14759
 2.24128
 2.26244
 2.31996
 2.32860
 2.44504
 2.47091
 2.48314
 2.51528
 2.51663
 2.606276
 2.62761
 2.65182
 2.83891
 2.85901
 2.93923
 2.94562
 2.96575
 2.98216
 3.02613
 3.04839
 3.05126
 3.08025
 3.10776
 3.12843
 3.13446
 3.16167
 3.23109
 3.27479
 3.32747
 3.36757
 3.40238
 3.40842
 3.43446
 3.47537
 3.50800
 3.62192
 3.62418
 3.65185
 3.67984
 3.68586
 3.86969
 3.87377
 3.87486
 3.88788
 3.89504
 3.89597
 3.89731
 3.94839
 3.95299
 3.99657
